File: files/MFLI_Zview_txt_imps_0_sample_00000.txt
ZPLOT2 ASCII
  Saved Data, ZView:          3
  Experiment Type:            Sweep Frequency, Control Voltage
  Date:                       01-01-1970
  Time:                       01:28:03
  Open Circuit Potential (V): 0
  Begin User Comments:        0
  End User Comments:          0
  Begin Information:          Cell Information
    Surface Area:             1
    Density:                  0
    Weight:                   0
    Polarity:                 0
    PolarityI:                0
    Corrosion Unit Type:      0
    Reference Type:           0
    Reference Potential:      0
    User-Defined Potential:   0
    Stern-Geary:              26
  End Information:            Cell Information
  Null Configuration:         0,2,0,1,0.001,1000000
  Data Points:                120
  Freq(Hz)	Ampl	Bias	Time(Sec)	Z'(a)	Z''(b)	Aux	Err	Range
End Comments
5e+06	1.000061e-01	0.000000e+00	0.000000e+00	2.623363e+03	-4.420820e+03	0.0000E+00	0	0
3.57083e+06	1.000061e-01	0.000000e+00	5.010133e-02	3.156690e+03	-6.293704e+03	0.0000E+00	0	0
2.55016e+06	1.000061e-01	0.000000e+00	1.005760e-01	3.992897e+03	-8.671755e+03	0.0000E+00	0	0
1.82124e+06	1.000061e-01	0.000000e+00	1.515733e-01	5.321135e+03	-1.165914e+04	0.0000E+00	0	0
1.30066e+06	1.000061e-01	0.000000e+00	2.001067e-01	7.375747e+03	-1.531282e+04	0.0000E+00	0	0
928890	1.000061e-01	0.000000e+00	2.732800e-01	1.048232e+04	-1.959903e+04	0.0000E+00	0	0
663381	1.000061e-01	0.000000e+00	9.000320e-01	1.483152e+04	-2.418360e+04	0.0000E+00	0	0
473764	1.000061e-01	0.000000e+00	9.724587e-01	2.102358e+04	-2.914191e+04	0.0000E+00	0	0
338346	1.000061e-01	0.000000e+00	1.031744e+00	2.906000e+04	-3.359633e+04	0.0000E+00	0	0
241635	1.000061e-01	0.000000e+00	1.082667e+00	3.866941e+04	-3.681454e+04	0.0000E+00	0	0
172567	1.000061e-01	0.000000e+00	1.135904e+00	4.925200e+04	-3.822178e+04	0.0000E+00	0	0
123242	1.000061e-01	0.000000e+00	1.204299e+00	5.991569e+04	-3.762114e+04	0.0000E+00	0	0
88014.8	1.000061e-01	0.000000e+00	1.258731e+00	6.980973e+04	-3.521865e+04	0.0000E+00	0	0
62857.2	1.000061e-01	0.000000e+00	1.338101e+00	7.832184e+04	-3.162043e+04	0.0000E+00	0	0
44890.4	1.000061e-01	0.000000e+00	1.408512e+00	8.523451e+04	-2.742687e+04	0.0000E+00	0	0
32059.2	1.000061e-01	0.000000e+00	1.476160e+00	9.065941e+04	-2.320607e+04	0.0000E+00	0	0
22895.6	1.000061e-01	0.000000e+00	1.538805e+00	9.478886e+04	-1.928517e+04	0.0000E+00	0	0
16351.2	1.000061e-01	0.000000e+00	1.608917e+00	9.792943e+04	-1.585018e+04	0.0000E+00	0	0
11677.5	1.000061e-01	0.000000e+00	1.658795e+00	1.003098e+05	-1.294163e+04	0.0000E+00	0	0
8339.65	1.000061e-01	0.000000e+00	2.228203e+00	1.021616e+05	-1.046628e+04	0.0000E+00	0	0
5955.89	1.000061e-01	0.000000e+00	2.290848e+00	1.036017e+05	-8.551369e+03	0.0000E+00	0	0
4253.49	1.000061e-01	0.000000e+00	2.361931e+00	1.047305e+05	-6.978267e+03	0.0000E+00	0	0
3037.69	1.000061e-01	0.000000e+00	2.527467e+00	1.056506e+05	-5.727822e+03	0.0000E+00	0	0
2169.42	1.000061e-01	0.000000e+00	2.791488e+00	1.064012e+05	-4.729752e+03	0.0000E+00	0	0
1549.32	1.000061e-01	0.000000e+00	3.044235e+00	1.069975e+05	-3.939527e+03	0.0000E+00	0	0
1106.47	1.000061e-01	0.000000e+00	3.315648e+00	1.075567e+05	-3.319151e+03	0.0000E+00	0	0
790.204	1.000061e-01	0.000000e+00	3.572700e+00	1.080108e+05	-2.833862e+03	0.0000E+00	0	0
564.337	1.000061e-01	0.000000e+00	3.838513e+00	1.083964e+05	-2.477550e+03	0.0000E+00	0	0
403.03	1.000061e-01	0.000000e+00	4.117816e+00	1.087381e+05	-2.220854e+03	0.0000E+00	0	0
287.83	1.000061e-01	0.000000e+00	4.422506e+00	1.090586e+05	-2.037510e+03	0.0000E+00	0	0
205.558	1.000061e-01	0.000000e+00	4.732008e+00	1.093563e+05	-1.931481e+03	0.0000E+00	0	0
146.803	1.000061e-01	0.000000e+00	5.069335e+00	1.097496e+05	-1.922650e+03	0.0000E+00	0	0
104.841	1.000061e-01	0.000000e+00	5.458855e+00	1.099270e+05	-1.962671e+03	0.0000E+00	0	0
74.874	1.000061e-01	0.000000e+00	5.894007e+00	1.102122e+05	-2.103355e+03	0.0000E+00	0	0
53.4724	1.000061e-01	0.000000e+00	6.426595e+00	1.102126e+05	-2.559997e+03	0.0000E+00	0	0
38.1882	1.000061e-01	0.000000e+00	7.102192e+00	1.108700e+05	-2.659857e+03	0.0000E+00	0	0
27.2727	1.000061e-01	0.000000e+00	8.032989e+00	1.112434e+05	-3.132330e+03	0.0000E+00	0	0
19.4772	1.000061e-01	0.000000e+00	9.254813e+00	1.116668e+05	-3.763552e+03	0.0000E+00	0	0
13.9099	1.000061e-01	0.000000e+00	1.104072e+01	1.121812e+05	-4.604651e+03	0.0000E+00	0	0
9.934	1.000061e-01	0.000000e+00	1.204427e+01	1.127781e+05	-5.708506e+03	0.0000E+00	0	0
7.09452	1.000061e-01	0.000000e+00	1.267931e+01	1.135084e+05	-7.180692e+03	0.0000E+00	0	0
5.06666	1.000061e-01	0.000000e+00	1.336385e+01	1.144301e+05	-9.033608e+03	0.0000E+00	0	0
3.61843	1.000061e-01	0.000000e+00	1.421998e+01	1.154802e+05	-1.147017e+04	0.0000E+00	0	0
2.58416	1.000061e-01	0.000000e+00	1.522096e+01	1.170886e+05	-1.481391e+04	0.0000E+00	0	0
1.84552	1.000061e-01	0.000000e+00	1.644169e+01	1.190967e+05	-1.855102e+04	0.0000E+00	0	0
1.318	1.000061e-01	0.000000e+00	1.793509e+01	1.216537e+05	-2.369412e+04	0.0000E+00	0	0
0.941274	1.000061e-01	0.000000e+00	1.989076e+01	1.244387e+05	-3.013633e+04	0.0000E+00	0	0
0.672225	1.000061e-01	0.000000e+00	2.255442e+01	1.288528e+05	-3.903798e+04	0.0000E+00	0	0
0.48008	1.000061e-01	0.000000e+00	2.615507e+01	1.334709e+05	-4.814246e+04	0.0000E+00	0	0
0.342856	1.000061e-01	0.000000e+00	3.105223e+01	1.413759e+05	-6.193849e+04	0.0000E+00	0	0
0.244856	1.000061e-01	0.000000e+00	3.773707e+01	1.485792e+05	-7.988386e+04	0.0000E+00	0	0
0.174868	1.000061e-01	0.000000e+00	4.701888e+01	1.571476e+05	-1.007447e+05	0.0000E+00	0	0
0.124885	1.000061e-01	0.000000e+00	5.986252e+01	1.695197e+05	-1.266747e+05	0.0000E+00	0	0
0.0891882	1.000061e-01	0.000000e+00	7.776908e+01	1.862336e+05	-1.606183e+05	0.0000E+00	0	0
0.0636952	1.000061e-01	0.000000e+00	1.026533e+02	2.076302e+05	-2.059545e+05	0.0000E+00	0	0
0.0454889	1.000061e-01	0.000000e+00	1.372697e+02	2.343001e+05	-2.659717e+05	0.0000E+00	0	0
0.0324867	1.000061e-01	0.000000e+00	1.862917e+02	2.688748e+05	-3.461675e+05	0.0000E+00	0	0
0.0232009	1.000061e-01	0.000000e+00	2.538096e+02	3.137759e+05	-4.483767e+05	0.0000E+00	0	0
0.0165691	1.000061e-01	0.000000e+00	3.482856e+02	3.727478e+05	-5.866324e+05	0.0000E+00	0	0
0.0118331	1.000061e-01	0.000000e+00	4.803980e+02	4.598886e+05	-7.535685e+05	0.0000E+00	0	0
0.00999989	1.000061e-01	0.000000e+00	5.650991e+02	5.133683e+05	-8.670968e+05	0.0000E+00	0	0